#------------------------------------------
#
# peak 1
#
description	488874 to 500890 ms, PARAFAC model with 3 components- Peak 1
# mass spectrum (m/z - intensity)
51	0.00420923
52	0.00266165
53	0.0202286
54	0.00842704
55	0.138329
56	0.0582271
57	0.503689
58	0.0188256
59	0.00287522
61	0.00124266
62	0.00103097
63	0.00109075
65	0.00316515
66	0.00104211
67	0.0135741
68	0.00557632
69	0.0565347
70	0.253674
71	0.738437
72	0.0389072
73	0.000621362
76	0.000176597
77	0.00732182
78	0.00105154
79	0.00341254
80	0.0026268
81	0.00174253
82	0.00150121
83	0.010166
84	0.134559
85	0.21946
86	0.0254332
91	0.0020224
92	0.000230218
93	0.00939706
96	0.00175067
97	0.00276075
98	0.00232775
99	0.0105326
100	0.000708012
101	0.00133223
103	0.000177596
105	0.00806594
106	0.00116733
107	0.000747052
110	0.000284043
112	0.058935
113	0.192055
114	0.0144352
115	0.000162553
117	0.00116683
119	0.000399631
121	0.000877246
125	0.000936726
126	0.00107595
127	0.00398249
128	0.000846294
129	0.00165848
133	0.000917888
134	9.60861e-007
135	0.000152578
136	0.00145693
140	0.00143943
141	0.00895882
154	0.00118478
156	0.0160127
157	0.00184945
281	0.000472525
529	8.73694e-007
# elution profile (minutes converted to milliseconds - intensity)
488874	0.02447
489217	0.0153925
489560	0.0105971
489904	0.00724079
490247	0.00513963
490590	0
490934	0
491277	0.000586083
491620	0.000616191
491963	0.00334675
492307	0.00485197
492650	0.00635727
492993	0.0166958
493337	0.0482025
493680	0.0870392
494023	0.172734
494367	0.277152
494710	0.397479
495053	0.47247
495397	0.454876
495740	0.395053
496083	0.2965
496427	0.177856
496770	0.100239
497113	0.0562056
497457	0.0275917
497800	0.014235
498143	0.00911898
498487	0.00398182
498830	0.00290189
499173	0.00309107
499516	0.00282879
499860	0.00616781
500203	0.0113067
500546	0.0276854
500890	0.0556707
#------------------------------------------
#
# peak 2
#
description	488874 to 500890 ms, PARAFAC model with 3 components- Peak 2
# mass spectrum (m/z - intensity)
50	0.0126816
51	0.0362767
52	0.00446683
53	0.0460636
54	0.0298749
55	0.230921
56	0.271542
57	0.403998
58	0.061927
59	0.0319424
60	0.0205855
61	0.00311015
62	0.00173212
63	0.0116834
64	0.0124088
65	0.0618824
66	0.0654573
67	0.0712807
68	0.0482932
69	0.131639
70	0.087126
71	0.0515497
72	0.048857
73	0.0444423
74	0.0224098
75	0.0329859
76	0.00255882
77	0.0519731
78	0.0180498
79	0.0385323
80	0.00734758
81	0.0563661
82	0.0431408
83	0.0619423
84	0.291751
85	0.124155
86	0.632025
87	0.0936386
88	0.0017275
89	0.00438659
90	3.46748e-005
91	0.0788893
92	0.0276265
93	0.0206537
94	0.259088
95	0.0519586
96	0.0150757
97	0.0477153
98	0.0160453
99	0.00956988
100	0.00397446
101	0.00905614
102	0.000589793
103	0.0256517
104	0.0209234
105	0.0723794
106	0.0173724
107	0.00471872
108	0.00207561
109	0.0124106
110	0.0192393
111	0.0715944
112	0.0280089
113	0.00970453
114	6.05299e-005
115	0.00212552
117	0.0273471
118	0.00247917
119	0.00304989
120	0.00191815
121	0.00642444
122	0.0275284
123	0.000864381
124	1.08053e-005
125	0.000860511
126	0.00337878
127	0.00470539
128	0.00647409
129	0.0772764
130	0.000564045
132	3.55548e-005
133	0.00400825
134	0.00925274
135	0.000290137
138	0.000893244
139	0.000512583
146	0.118158
147	0.00712364
148	0.0749898
149	0.00423279
150	0.0103651
151	9.9007e-006
154	0.00102746
158	0.00023326
159	8.832e-005
165	0.00042906
166	0.000408963
168	0.000511068
169	0.00035259
173	6.7725e-005
175	1.52601e-005
179	0.000863609
190	2.62813e-005
191	0.000718302
195	3.11731e-006
201	7.09924e-006
207	0.0693511
208	0.001666
209	0.000904936
210	0.000109594
219	0.000208883
220	0.000333748
222	4.4304e-006
281	0.0514651
282	0.00420527
283	0.000352746
286	1.20931e-005
314	1.8129e-006
331	1.49074e-006
341	1.30708e-006
366	7.70742e-006
368	7.95363e-006
395	2.32541e-005
405	5.559e-006
446	2.56814e-005
466	8.56795e-006
506	1.08901e-006
510	6.78743e-006
514	5.58584e-005
520	7.55319e-006
521	1.01052e-005
524	0.000395517
529	2.99047e-006
# elution profile (minutes converted to milliseconds - intensity)
488874	0.193527
489217	0.199419
489560	0.193552
489904	0.179865
490247	0.179324
490590	0.187983
490934	0.185648
491277	0.166483
491620	0.160772
491963	0.146532
492307	0.146464
492650	0.145836
492993	0.140409
493337	0.152088
493680	0.161439
494023	0.168492
494367	0.153372
494710	0.135226
495053	0.139811
495397	0.147876
495740	0.13995
496083	0.144076
496427	0.174534
496770	0.190641
497113	0.200491
497457	0.207524
497800	0.193121
498143	0.182006
498487	0.174027
498830	0.172545
499173	0.145254
499516	0.14923
499860	0.134964
500203	0.141562
500546	0.148459
500890	0.167851
#------------------------------------------
#
# peak 3
#
description	488874 to 500890 ms, PARAFAC model with 3 components- Peak 3
# mass spectrum (m/z - intensity)
51	0.0143641
52	0.0101027
53	0.0253134
54	0.021731
55	0.116637
56	0.0244294
57	0.0208952
58	0.0147194
59	0.00704184
60	0.0125939
61	0.00886449
62	0.00181334
63	0.00102087
64	0.0242532
65	0.0314096
66	0.0530828
67	0.0546199
68	0.029055
69	0.0416634
70	0.0101478
71	0.00424259
76	5.8728e-005
77	0.0300781
78	0.00865028
79	0.111261
80	0.00857733
81	0.0678649
82	0.0231276
90	0.000100834
91	0.0120335
93	0.00672594
94	0.429623
95	0.0207503
96	0.017843
97	0.00344597
98	0.0017632
102	0.000482443
103	0.0135189
105	0.0209876
106	0.0100727
107	0.000759222
108	0.00142887
110	0.0107417
115	0.00116261
118	0.00173341
119	0.00159258
120	0.00884929
121	0.0818478
122	0.319993
123	0.0195418
124	2.39515e-005
125	0.000391142
126	0.144443
127	0.0138265
128	0.000369048
130	0.000270361
131	0.000126233
132	5.9066e-005
133	0.00183226
134	0.000644007
135	0.000232521
139	0.000197829
140	0.000109933
151	5.281e-005
159	9.08017e-005
163	0.000803262
164	0.000218562
165	0.000319351
173	1.7333e-007
175	5.54973e-006
179	0.00503233
190	5.26052e-005
191	0.00245227
192	0.00179735
193	0.0582011
194	0.00142045
195	2.60726e-005
201	5.23102e-006
207	0.111303
208	0.00355254
209	0.00315014
210	2.70616e-005
213	6.23295e-005
215	0.000188931
218	0.000397724
219	0.000552524
220	0.000849682
222	5.51977e-005
223	0.00449721
224	0.000372375
233	0.000203997
235	0.000452024
237	0.00823389
243	0.000358187
246	0.000171751
249	0.000597675
250	0.00033349
251	0.0893891
252	0.0112242
253	0.00341911
265	0.000234835
267	0.751804
268	0.185085
269	0.112837
270	0.00350274
272	0.000106427
281	0.0390355
282	0.00102428
283	0.000484942
285	0.000286464
286	1.204e-005
314	2.28309e-005
315	0.000130435
322	0.000243184
331	2.51425e-005
341	6.22943e-005
366	5.00757e-005
368	1.0712e-005
395	0.000148827
405	9.39877e-005
446	0.000476669
447	0.000115883
458	8.39254e-005
466	4.92126e-005
467	6.07828e-005
506	1.2017e-006
510	7.07909e-005
514	4.10091e-005
520	1.38397e-005
521	1.21486e-005
529	4.48458e-005
# elution profile (minutes converted to milliseconds - intensity)
488874	0.049764
489217	0.0540895
489560	0.0533403
489904	0.0606403
490247	0.0794411
490590	0.10557
490934	0.151
491277	0.22055
491620	0.28756
491963	0.354063
492307	0.390833
492650	0.385079
492993	0.358523
493337	0.296389
493680	0.236098
494023	0.160212
494367	0.122376
494710	0.106345
495053	0.0812914
495397	0.0761026
495740	0.0749612
496083	0.0807071
496427	0.0669695
496770	0.0678443
497113	0.0606121
497457	0.0587343
497800	0.0588577
498143	0.0568679
498487	0.0534107
498830	0.0492125
499173	0.0501719
499516	0.049121
499860	0.0501151
500203	0.0470731
500546	0.043356
500890	0.0418839
